Voltage(V),Current(A),Power(W)
5,"[5.01142   0.010108  5.00156   0.0159369 4.99902   0.0144965 4.99971
 0.0148131 4.99719   0.0361099 4.99595   0.0056954 5.00329   0.0146432
 4.99632   0.0092334 5.00219   0.0162778 5.00564   0.0205238 4.99486
 0.0062975 5.00048   0.0121438 4.99931   0.0100406 4.99158   0.0134165
 5.01005   0.0207936 4.99648   0.0083145 5.00481   0.0089529 4.98336
 0.0154743 5.01543   0.010162  4.99821   0.0111286 5.00132   0.0100633
 4.999     0.0105567 4.99284   0.0143305 5.00983   0.0182084 4.99911
 0.017122  5.00283   0.0096907 4.99805   0.0143588 4.97614   0.0306501
 5.01954   0.0074437 4.99898   0.017512  4.99899   0.0120914 5.00156
 0.0111802 5.00465   0.0187333 4.99472   0.0079174 5.00134   0.0120152
 5.00055   0.0067483 4.97853   0.019153  5.01874   0.0123168 4.9967
 0.0106563 5.00356   0.0099502 4.99977   0.0105028 4.99016   0.0230061
 5.00655   0.0098075 5.00033   0.0158225 4.99862   0.0142919 5.0027
 0.0121539 4.99741   0.0342308 4.99313   0.0062403 5.00151   0.0147684
 4.99938   0.0149216 4.99157   0.0167869 5.01192   0.0111039 4.99782
 0.0110393 5.00108   0.0101746 5.00094   0.0103365 4.98713   0.0109222
 5.00605   0.0175906 4.99704   0.0106199 5.00301   0.0100892 4.99994
 0.0110746 4.98788   0.0199692 5.01024   0.0068103 5.00117   0.0175847
 4.99797   0.0141156 5.00128   0.0121848 4.97505   0.0254983 5.01922
 0.0119492 5.00149   0.0167471 4.99953   0.0122676 4.99984   0.0152284
 5.00452   0.01961   4.99749   0.0097157 5.00159   0.0113089 4.9985
 0.010397  4.99176   0.0125162 5.00811   0.0168226 4.99805   0.0110134
 5.00282   0.0104825 4.99789   0.0108143 5.00446   0.0167157 4.99643
 0.016051  5.00184   0.0136809 4.99969   0.0150812 4.98611   0.0244902
 5.01215   0.009645  5.00083   0.0154774 4.99858   0.0141044 4.99721
 0.013839  5.00637   0.0264457 4.99519   0.0107174 5.0023    0.0107381
 5.00068   0.010551  5.00376   0.0182056 4.99598   0.0092151 5.00164
 0.0112832 4.99909   0.010192  4.99615   0.0119558 5.00586   0.0216959
 4.9955    0.0093156 4.99748   0.012919 ]","[25.057098    0.05054    25.007801    0.0796845  24.9951      0.0724825
 24.99855     0.0740655  24.98595     0.18054949 24.979752    0.028477
 25.01645     0.073216   24.981598    0.046167   25.01095     0.081389
 25.0282      0.102619   24.9743      0.0314875  25.002401    0.060719
 24.99655     0.050203   24.957901    0.0670825  25.05025     0.103968
 24.982399    0.0415725  25.02405     0.0447645  24.9168      0.0773715
 25.07715     0.05081    24.99105     0.055643   25.0066      0.0503165
 24.995       0.0527835  24.9642      0.0716525  25.04915     0.091042
 24.995552    0.08561    25.01415     0.0484535  24.990252    0.071794
 24.8807      0.1532505  25.097698    0.0372185  24.9949      0.08756
 24.99495     0.060457   25.007801    0.055901   25.02325     0.0936665
 24.9736      0.039587   25.006699    0.060076   25.002748    0.0337415
 24.89265     0.095765   25.0937      0.061584   24.9835      0.0532815
 25.0178      0.049751   24.998852    0.052514   24.9508      0.1150305
 25.03275     0.0490375  25.00165     0.0791125  24.9931      0.0714595
 25.0135      0.0607695  24.98705     0.17115399 24.96565     0.0312015
 25.007551    0.073842   24.9969      0.074608   24.95785     0.0839345
 25.0596      0.0555195  24.9891      0.0551965  25.0054      0.050873
 25.0047      0.0516825  24.93565     0.054611   25.03025     0.08795299
 24.985199    0.0530995  25.015049    0.050446   24.999699    0.055373
 24.939402    0.09984601 25.0512      0.0340515  25.005852    0.0879235
 24.989851    0.070578   25.0064      0.060924   24.87525     0.1274915
 25.0961      0.059746   25.00745     0.0837355  24.99765     0.061338
 24.999199    0.076142   25.0226      0.09805001 24.98745     0.0485785
 25.00795     0.0565445  24.9925      0.051985   24.9588      0.062581
 25.04055     0.084113   24.990252    0.055067   25.0141      0.0524125
 24.98945     0.0540715  25.022299    0.0835785  24.98215     0.080255
 25.009201    0.0684045  24.998451    0.075406   24.930552    0.122451
 25.06075     0.048225   25.00415     0.07738701 24.9929      0.070522
 24.98605     0.069195   25.03185     0.1322285  24.97595     0.053587
 25.0115      0.0536905  25.003399    0.052755   25.018799    0.091028
 24.979898    0.0460755  25.0082      0.056416   24.995451    0.05096
 24.980751    0.059779   25.029299    0.1084795  24.9775      0.046578
 24.9874      0.064595  ]"
