Current(A),Power(W)
"[ 3.82465e-02 -9.41820e-03  1.35294e-02  6.69806e-02  3.08095e-02
  2.61435e-02 -3.35300e-04  1.01394e-02  6.22833e-02  3.64352e-02
  2.64331e-02  2.80880e-03  2.34806e-02  6.28465e-02  2.31303e-02
  4.70800e-02  3.97276e-02  4.30672e-02  4.01814e-02  4.41727e-02
  2.45190e-03  1.26921e-02  6.38677e-02 -2.15100e-04  4.83390e-03
  3.88144e-02  4.25119e-02 -8.28200e-03  2.05696e-02  6.59987e-02
 -3.85230e-03  8.48670e-03  4.08371e-02  5.72458e-02 -3.71540e-03
  1.12097e-02  3.97640e-02  5.90322e-02 -8.65060e-03  8.13800e-03
  2.67228e-02  6.51503e-02  1.31995e-02  2.31030e-03  6.13890e-03
  3.26766e-02  6.23185e-02 -8.88880e-03  7.71010e-03  3.70980e-02
  6.22330e-02  2.13242e-02  9.72810e-03  7.62150e-03  6.60417e-02
  3.01041e-02  3.45093e-02  4.16813e-02  3.34785e-02  4.08294e-02
  2.77005e-02 -5.08300e-04  6.51410e-03  1.58296e-02  6.67257e-02
  2.58434e-02  6.51680e-03  4.63200e-03  2.46731e-02  5.34681e-02
 -8.18230e-03  1.71190e-02  6.85213e-02  2.43135e-02 -5.93300e-04
  2.23648e-02  6.93965e-02  1.33996e-02  2.73470e-03  5.53173e-02
  2.27695e-02 -1.58470e-03  3.39504e-02  6.43163e-02  2.11965e-02
  5.37020e-03  8.53090e-03  4.28135e-02  5.62061e-02  2.97121e-02
  2.31708e-02  4.83000e-04  5.16388e-02  4.48625e-02  2.73793e-02
  4.43374e-02  3.31348e-02  3.91425e-02  3.65997e-02  2.83405e-02
 -1.81130e-03  9.46710e-03  5.74251e-02  5.41620e-03  1.31540e-03
  1.53318e-02  6.97193e-02  5.87200e-03  1.47310e-03  6.50560e-03
  5.78570e-02  3.75852e-02 -1.04985e-02  9.46360e-03  5.10075e-02
  4.40510e-02 -1.00169e-02  9.05750e-03  4.84586e-02  4.62022e-02
 -1.18107e-02  1.19937e-02  6.13946e-02  4.78787e-02 -4.36000e-05
  1.30802e-02  6.03359e-02  4.39732e-02  3.44370e-02  6.97710e-03
  3.46325e-02  6.02985e-02  2.84266e-02  4.85391e-02  3.67947e-02
  4.37494e-02  4.12428e-02  2.02814e-02  2.45990e-03  1.70021e-02
  6.38298e-02 -1.47810e-03  8.94000e-03  2.61752e-02  6.13929e-02
  5.38130e-03  1.15380e-03  4.24850e-03  4.28768e-02  5.84996e-02
 -1.23276e-02  8.72040e-03  3.38866e-02  6.11023e-02 -1.25174e-02
  1.11474e-02  3.42265e-02  6.00077e-02 -1.20557e-02  9.66510e-03
  5.16502e-02  4.93362e-02 -8.00000e-07  6.42180e-03  1.45632e-02
  5.90368e-02 -7.39450e-03  7.64410e-03  3.86333e-02  5.94259e-02
  9.11790e-03  3.90690e-03  2.03313e-02  6.66594e-02  2.10052e-02
  4.49219e-02  3.86784e-02  4.34066e-02  3.93415e-02  4.36351e-02
  4.14117e-02  1.80246e-02  2.66130e-03  3.49555e-02  4.96448e-02
 -8.56300e-03  1.93369e-02  6.60110e-02 -1.18400e-03  8.01310e-03
  3.00424e-02  6.39306e-02  3.68540e-03  6.46800e-03  1.92582e-02
  7.00480e-02  1.56456e-02  1.29540e-03  2.40328e-02  6.37831e-02]","[ 3.82465e-02 -9.41820e-03  1.35294e-02  6.69806e-02  3.08095e-02
  2.61435e-02 -3.35300e-04  1.01394e-02  6.22833e-02  3.64352e-02
  2.64331e-02  2.80880e-03  2.34806e-02  6.28465e-02  2.31303e-02
  4.70800e-02  3.97276e-02  4.30672e-02  4.01814e-02  4.41727e-02
  2.45190e-03  1.26921e-02  6.38677e-02 -2.15100e-04  4.83390e-03
  3.88144e-02  4.25119e-02 -8.28200e-03  2.05696e-02  6.59987e-02
 -3.85230e-03  8.48670e-03  4.08371e-02  5.72458e-02 -3.71540e-03
  1.12097e-02  3.97640e-02  5.90322e-02 -8.65060e-03  8.13800e-03
  2.67228e-02  6.51503e-02  1.31995e-02  2.31030e-03  6.13890e-03
  3.26766e-02  6.23185e-02 -8.88880e-03  7.71010e-03  3.70980e-02
  6.22330e-02  2.13242e-02  9.72810e-03  7.62150e-03  6.60417e-02
  3.01041e-02  3.45093e-02  4.16813e-02  3.34785e-02  4.08294e-02
  2.77005e-02 -5.08300e-04  6.51410e-03  1.58296e-02  6.67257e-02
  2.58434e-02  6.51680e-03  4.63200e-03  2.46731e-02  5.34681e-02
 -8.18230e-03  1.71190e-02  6.85213e-02  2.43135e-02 -5.93300e-04
  2.23648e-02  6.93965e-02  1.33996e-02  2.73470e-03  5.53173e-02
  2.27695e-02 -1.58470e-03  3.39504e-02  6.43163e-02  2.11965e-02
  5.37020e-03  8.53090e-03  4.28135e-02  5.62061e-02  2.97121e-02
  2.31708e-02  4.83000e-04  5.16388e-02  4.48625e-02  2.73793e-02
  4.43374e-02  3.31348e-02  3.91425e-02  3.65997e-02  2.83405e-02
 -1.81130e-03  9.46710e-03  5.74251e-02  5.41620e-03  1.31540e-03
  1.53318e-02  6.97193e-02  5.87200e-03  1.47310e-03  6.50560e-03
  5.78570e-02  3.75852e-02 -1.04985e-02  9.46360e-03  5.10075e-02
  4.40510e-02 -1.00169e-02  9.05750e-03  4.84586e-02  4.62022e-02
 -1.18107e-02  1.19937e-02  6.13946e-02  4.78787e-02 -4.36000e-05
  1.30802e-02  6.03359e-02  4.39732e-02  3.44370e-02  6.97710e-03
  3.46325e-02  6.02985e-02  2.84266e-02  4.85391e-02  3.67947e-02
  4.37494e-02  4.12428e-02  2.02814e-02  2.45990e-03  1.70021e-02
  6.38298e-02 -1.47810e-03  8.94000e-03  2.61752e-02  6.13929e-02
  5.38130e-03  1.15380e-03  4.24850e-03  4.28768e-02  5.84996e-02
 -1.23276e-02  8.72040e-03  3.38866e-02  6.11023e-02 -1.25174e-02
  1.11474e-02  3.42265e-02  6.00077e-02 -1.20557e-02  9.66510e-03
  5.16502e-02  4.93362e-02 -8.00000e-07  6.42180e-03  1.45632e-02
  5.90368e-02 -7.39450e-03  7.64410e-03  3.86333e-02  5.94259e-02
  9.11790e-03  3.90690e-03  2.03313e-02  6.66594e-02  2.10052e-02
  4.49219e-02  3.86784e-02  4.34066e-02  3.93415e-02  4.36351e-02
  4.14117e-02  1.80246e-02  2.66130e-03  3.49555e-02  4.96448e-02
 -8.56300e-03  1.93369e-02  6.60110e-02 -1.18400e-03  8.01310e-03
  3.00424e-02  6.39306e-02  3.68540e-03  6.46800e-03  1.92582e-02
  7.00480e-02  1.56456e-02  1.29540e-03  2.40328e-02  6.37831e-02]"
